# Mon Aug 25 13:55:39 2014
#
# Cooling Map File
#
# Loop values:
# hden -0.5
#
# Data Columns:
# log10 Te [K]
# log10 Emissivities / n_H^2 [erg s^-1 cm^3]
#
#Te   H__1_1216  H__1_6563  C__4_1548  C__4_1551  O__6_1032  O__6_1038  C__3_977  C__3_1907  C__3_1910  Si_2_1814  Si_3_1207  Si_3_1883  Si_4_1394  Si_4_1403  Mg_2_2796  Mg_2_2803
3.00  -23.7623  -24.7320  -304.6526  -304.6526  -304.6526  -304.6526  -32.9395  -304.6526  -304.6526  -304.6526  -32.1760  -304.6526  -304.6526  -304.6526  -44.4507  -44.6956
3.10  -23.7820  -24.7584  -304.6526  -304.6526  -304.6526  -304.6526  -32.7213  -304.6526  -304.6526  -304.6526  -32.0644  -304.6526  -304.6526  -304.6526  -39.8566  -40.1133
3.20  -23.8036  -24.7872  -53.4598  -53.7194  -304.6526  -304.6526  -32.5759  -304.6526  -304.6526  -304.6526  -31.9818  -304.6526  -304.6526  -304.6526  -36.2061  -36.4721
3.30  -23.8271  -24.8187  -48.2410  -48.5092  -304.6526  -304.6526  -32.4857  -304.6526  -304.6526  -304.6526  -31.9150  -304.6526  -48.9712  -49.1313  -33.3047  -33.5781
3.40  -23.8528  -24.8529  -44.0976  -44.3727  -304.6526  -304.6526  -32.4376  -36.9937  -37.1787  -304.6526  -31.8571  -304.6526  -44.3557  -44.5455  -30.9998  -31.2792
3.50  -23.8809  -24.8901  -40.8086  -41.0892  -304.6526  -304.6526  -32.4212  -34.3079  -34.4929  -304.6526  -31.8063  -36.7186  -40.6926  -40.9060  -29.1719  -29.4560
3.60  -23.9115  -24.9303  -38.1986  -38.4836  -304.6526  -304.6526  -32.4287  -32.1654  -32.3505  -30.9322  -31.7632  -34.0551  -37.7865  -38.0186  -27.7258  -28.0136
3.70  -23.9447  -24.9738  -36.1281  -36.4166  -304.6526  -304.6526  -32.4536  -30.4587  -30.6437  -29.1782  -31.7287  -31.7430  -35.4822  -35.7292  -26.5851  -26.8758
3.80  -23.9837  -25.0277  -34.4866  -34.7778  -304.6526  -304.6526  -32.4913  -29.1084  -29.2934  -27.7914  -31.7034  -29.8709  -33.6561  -33.9150  -25.6888  -25.9819
3.90  -24.0109  -25.0833  -33.1849  -33.4782  -304.6526  -304.6526  -32.5367  -28.0401  -28.2251  -26.6977  -30.3511  -28.3808  -32.2100  -32.4782  -24.9871  -25.2821
4.00  -23.8130  -25.1115  -32.1521  -32.4471  -304.6526  -304.6526  -29.2422  -27.1955  -27.3805  -25.8385  -28.6590  -27.2005  -31.0646  -31.3402  -24.4363  -24.7328
4.10  -23.0756  -24.8073  -31.3211  -31.6175  -304.6526  -304.6526  -27.9079  -26.5238  -26.7087  -25.1639  -27.2795  -26.2527  -30.1270  -30.4086  -23.9990  -24.2966
4.20  -22.3445  -24.0876  -30.5021  -30.7997  -304.6526  -304.6526  -26.8391  -25.9856  -26.1705  -24.6065  -25.9786  -25.3050  -29.0339  -29.3202  -23.6912  -23.9897
4.30  -22.1616  -23.8115  -29.3661  -29.6645  -304.6526  -304.6526  -25.9623  -25.5347  -25.7195  -24.3309  -24.5921  -24.2088  -27.2908  -27.5808  -23.8699  -24.1692
4.40  -22.3615  -23.9355  -28.3989  -28.6980  -304.6526  -304.6526  -24.9690  -24.8842  -25.0689  -24.5647  -23.8106  -23.6681  -25.9548  -26.2478  -24.4497  -24.7495
4.50  -22.5892  -24.1105  -27.6743  -27.9739  -304.6526  -304.6526  -23.8231  -24.0151  -24.1998  -24.6846  -23.3788  -23.4377  -24.7345  -25.0299  -25.0091  -25.3094
4.60  -22.8054  -24.2916  -26.7329  -27.0330  -304.6526  -304.6526  -22.9802  -23.3969  -23.5816  -24.6985  -23.0986  -23.3238  -23.9558  -24.2531  -25.4972  -25.7979
4.70  -23.0069  -24.4715  -25.2698  -25.5702  -304.6526  -304.6526  -22.4552  -23.0550  -23.2396  -24.7999  -22.9255  -23.2810  -23.4693  -23.7680  -25.9197  -26.2207
4.80  -23.1899  -24.6432  -24.0300  -24.3306  -304.6526  -304.6526  -22.1390  -22.8887  -23.0733  -25.0315  -22.8646  -23.3304  -23.0752  -23.3751  -26.2719  -26.5732
4.90  -23.3505  -24.7998  -23.0672  -23.3681  -29.1079  -29.4072  -21.9524  -22.8257  -23.0103  -25.5094  -23.0519  -23.6120  -22.9103  -23.2112  -26.5229  -26.8244
5.00  -23.4994  -24.9515  -22.4274  -22.7285  -28.2984  -28.5985  -21.9665  -22.9424  -23.1269  -26.5881  -23.8518  -24.4935  -23.2854  -23.5870  -26.6869  -26.9885
5.10  -23.6473  -25.1053  -22.3764  -22.6776  -26.6223  -26.9231  -22.4729  -23.5345  -23.7189  -27.8546  -24.8587  -25.5718  -23.8657  -24.1679  -26.8968  -27.1985
5.20  -23.7930  -25.2578  -22.8064  -23.1077  -24.7692  -25.0706  -23.3842  -24.5181  -24.7025  -28.9806  -25.7423  -26.5186  -24.3656  -24.6683  -27.2445  -27.5463
5.30  -23.9340  -25.4068  -23.2979  -23.5993  -23.3967  -23.6985  -24.2967  -25.4921  -25.6765  -29.9072  -26.4431  -27.2761  -24.7237  -25.0268  -27.7426  -28.0445
5.40  -24.0714  -25.5523  -23.7399  -24.0414  -22.5241  -22.8262  -25.1118  -26.3603  -26.5446  -30.6605  -26.9859  -27.8704  -24.9584  -25.2618  -28.4148  -28.7168
5.50  -24.2216  -25.6972  -24.1238  -24.4253  -22.3768  -22.6792  -25.8302  -27.1249  -27.3092  -31.3672  -27.4953  -28.4274  -25.1891  -25.4927  -29.2403  -29.5423
5.60  -24.3935  -25.8434  -24.4483  -24.7499  -22.7683  -23.0709  -26.4579  -27.7933  -27.9776  -32.1681  -28.1106  -29.0873  -25.5510  -25.8547  -30.2326  -30.5346
5.70  -24.5602  -25.9854  -24.6987  -25.0003  -23.2190  -23.5218  -26.9852  -28.3570  -28.5412  -33.1331  -28.9000  -29.9190  -26.1088  -26.4127  -31.4266  -31.7286
5.80  -24.7219  -26.1235  -24.8762  -25.1779  -23.6223  -23.9252  -27.4167  -28.8215  -29.0057  -34.2660  -29.8656  -30.9256  -26.8619  -27.1659  -304.6526  -304.6526
5.90  -24.8792  -26.2582  -25.0669  -25.3686  -23.9617  -24.2647  -27.8406  -29.2756  -29.4598  -35.5560  -30.9951  -32.0955  -27.7954  -28.0996  -304.6526  -304.6526
6.00  -25.0325  -26.3898  -25.3777  -25.6794  -24.2186  -24.5217  -28.3652  -29.8282  -30.0124  -37.0295  -32.3083  -33.4492  -28.9270  -29.2312  -304.6526  -304.6526
6.10  -25.1822  -26.5191  -25.8743  -26.1760  -24.3861  -24.6892  -29.0576  -30.5470  -30.7311  -304.6526  -33.8283  -35.0110  -30.2784  -30.5826  -304.6526  -304.6526
6.20  -25.3288  -26.6463  -26.5157  -26.8174  -24.5207  -24.8239  -29.8785  -31.3928  -31.5769  -304.6526  -35.6149  -36.8419  -31.9084  -32.2127  -304.6526  -304.6526
6.30  -25.4730  -26.7721  -27.2003  -27.5020  -24.7244  -25.0277  -30.7288  -32.2670  -32.4510  -304.6526  -37.8591  -304.6526  -33.9672  -34.2715  -304.6526  -304.6526
6.40  -25.6151  -26.8970  -27.8660  -28.1678  -25.0880  -25.3913  -31.5493  -33.1105  -33.2945  -304.6526  -41.0895  -304.6526  -36.2527  -36.5571  -304.6526  -304.6526
6.50  -25.7558  -27.0216  -28.4894  -28.7911  -25.6213  -25.9247  -32.3190  -33.9026  -34.0865  -304.6526  -304.6526  -304.6526  -304.6526  -304.6526  -304.6526  -304.6526
6.60  -25.8955  -27.1462  -29.0798  -29.3816  -26.2460  -26.5493  -33.0568  -34.6551  -34.8391  -304.6526  -304.6526  -304.6526  -304.6526  -304.6526  -304.6526  -304.6526
6.70  -26.0347  -27.2714  -29.6413  -29.9431  -26.8796  -27.1829  -33.7644  -35.3741  -35.5580  -304.6526  -304.6526  -304.6526  -304.6526  -304.6526  -304.6526  -304.6526
6.80  -26.1736  -27.3974  -30.1724  -30.4741  -27.4826  -27.7859  -34.4387  -36.0595  -36.2434  -304.6526  -304.6526  -304.6526  -304.6526  -304.6526  -304.6526  -304.6526
6.90  -26.3126  -27.5244  -30.6820  -30.9837  -28.0545  -28.3578  -35.0890  -36.7205  -36.9043  -304.6526  -304.6526  -304.6526  -304.6526  -304.6526  -304.6526  -304.6526
7.00  -26.4520  -27.6528  -31.1731  -31.4748  -28.5957  -28.8991  -35.7194  -37.3614  -37.5452  -304.6526  -304.6526  -304.6526  -304.6526  -304.6526  -304.6526  -304.6526
7.10  -26.5918  -27.7826  -31.6485  -31.9502  -29.1051  -29.4085  -36.3324  -37.9847  -38.1685  -304.6526  -304.6526  -304.6526  -304.6526  -304.6526  -304.6526  -304.6526
7.20  -26.7324  -27.9140  -32.1081  -32.4098  -29.5899  -29.8932  -36.9070  -38.5695  -38.7533  -304.6526  -304.6526  -304.6526  -304.6526  -304.6526  -304.6526  -304.6526
7.30  -26.8738  -28.0469  -32.5568  -32.8586  -30.0529  -30.3563  -40.3393  -304.6526  -304.6526  -304.6526  -304.6526  -304.6526  -304.6526  -304.6526  -304.6526  -304.6526
7.40  -27.0160  -28.1814  -32.9967  -33.2985  -30.4966  -30.8000  -40.8949  -304.6526  -304.6526  -304.6526  -304.6526  -304.6526  -304.6526  -304.6526  -304.6526  -304.6526
7.50  -27.1592  -28.3174  -33.4288  -33.7305  -30.9215  -31.2249  -41.4419  -304.6526  -304.6526  -304.6526  -304.6526  -304.6526  -304.6526  -304.6526  -304.6526  -304.6526
7.60  -27.3032  -28.4548  -33.8557  -34.1575  -31.3321  -31.6355  -41.9834  -304.6526  -304.6526  -304.6526  -304.6526  -304.6526  -304.6526  -304.6526  -304.6526  -304.6526
7.70  -27.4481  -28.5937  -34.2790  -34.5807  -31.7305  -32.0339  -42.5207  -304.6526  -304.6526  -304.6526  -304.6526  -304.6526  -304.6526  -304.6526  -304.6526  -304.6526
7.80  -27.5895  -28.7296  -34.6950  -34.9968  -32.1137  -32.4171  -43.0504  -304.6526  -304.6526  -304.6526  -304.6526  -304.6526  -304.6526  -304.6526  -304.6526  -304.6526
7.90  -27.7403  -28.8753  -35.1186  -35.4204  -32.4974  -32.8008  -43.5871  -304.6526  -304.6526  -304.6526  -304.6526  -304.6526  -304.6526  -304.6526  -304.6526  -304.6526
8.00  -27.8877  -29.0178  -35.5376  -35.8393  -32.8703  -33.1737  -44.1189  -304.6526  -304.6526  -304.6526  -304.6526  -304.6526  -304.6526  -304.6526  -304.6526  -304.6526
